XLitho	YLitho	wavelength
7e-06	1.1e-05	33
1.1e-05	9e-06	
		
1.1e-05	9e-06	
1.1e-05	5e-06	
		
1.1e-05	5e-06	
7e-06	3e-06	
		
7e-06	3e-06	
3e-06	7e-06	
		
3e-06	7e-06	
7e-06	1.1e-05	
		
7e-06	1.25e-05	
1.2e-05	1e-05	
		
1.2e-05	1e-05	
1.2e-05	4e-06	
		
1.2e-05	4e-06	
7e-06	1.5e-06	
		
7e-06	1.5e-06	
2e-06	4e-06	
		
2e-06	4e-06	
2e-06	1e-05	
		
2e-06	1e-05	
7e-06	1.25e-05	
		
